#     Step Nr.          Time[fs]        Kin.[a.u.]          Temp[K]            Pot.[a.u.]        Cons Qty[a.u.]        UsedTime[s]
         0            0.000000         0.273612846       300.000000000     -1102.629448594     -1102.355835748         0.000000000
         1            0.500000         0.279633819       306.601634918     -1102.634728487     -1102.356032711      1271.566793900
         2            1.000000         0.278176228       305.003473713     -1102.643688340     -1102.356285322        83.661032557
         3            1.500000         0.280393422       307.434492997     -1102.653080703     -1102.356547289        81.336034361
         4            2.000000         0.282889483       310.171274159     -1102.655862600     -1102.356593452        84.175061133
         5            2.500000         0.294372846       322.762089256     -1102.653391721     -1102.356505399        84.292006847
         6            3.000000         0.293202260       321.478612092     -1102.644027094     -1102.356292113        85.423054468
         7            3.500000         0.275739443       302.331685376     -1102.631056927     -1102.356023130        86.337027378
         8            4.000000         0.264614578       290.133941924     -1102.619771042     -1102.355795899        86.632077724
         9            4.500000         0.268857948       294.786540953     -1102.613634927     -1102.355689469        85.388000697
        10            5.000000         0.262607548       287.933354685     -1102.612082629     -1102.355666725       591.727292545
        11            5.500000         0.288697192       316.539076467     -1102.616775792     -1102.355783250        85.642047964
        12            6.000000         0.295096611       323.555654134     -1102.622813260     -1102.355937950        83.654997777
        13            6.500000         0.289353988       317.259214176     -1102.629250655     -1102.356081233        83.786042519
        14            7.000000         0.287416783       315.135185470     -1102.637410482     -1102.356246228        83.839038536
        15            7.500000         0.310165102       340.077346930     -1102.641761748     -1102.356328622        85.224067591
        16            8.000000         0.323802738       355.030192819     -1102.645349103     -1102.356402515        83.163984425
        17            8.500000         0.301956868       331.077513241     -1102.645418760     -1102.356418530        88.586040210
        18            9.000000         0.286912673       314.582459298     -1102.641734958     -1102.356310656        83.640036259
        19            9.500000         0.276541909       303.211541919     -1102.635703652     -1102.356123440        84.498080760
        20           10.000000         0.260847091       286.003119536     -1102.628436222     -1102.355915126       647.935279559
        21           10.500000         0.250829117       275.019014031     -1102.621372875     -1102.355688604        85.149036251
        22           11.000000         0.252589683       276.949368713     -1102.619839890     -1102.355630752        82.994987771
        23           11.500000         0.254712048       279.276413740     -1102.626571548     -1102.355823251        83.087054059
        24           12.000000         0.265639894       291.258138723     -1102.636526005     -1102.356020668        83.580024466
        25           12.500000         0.277078124       303.799469221     -1102.645826859     -1102.356189502        85.948084466
        26           13.000000         0.276140999       302.771967344     -1102.652591961     -1102.356272544        86.186982956
        27           13.500000         0.297663960       326.370597939     -1102.655384720     -1102.356219451        83.748052344
        28           14.000000         0.292250721       320.435307919     -1102.655692042     -1102.356103565        84.628035147
        29           14.500000         0.281400579       308.538780420     -1102.654888372     -1102.356028025        85.347037021
        30           15.000000         0.286612223       314.253034546     -1102.651854052     -1102.355941964       672.299313702
        31           15.500000         0.301188497       330.235039789     -1102.649497290     -1102.355883179        84.751049411
        32           16.000000         0.299504682       328.388838219     -1102.646731418     -1102.355818637        83.644973271
        33           16.500000         0.291057519       319.127033606     -1102.645976761     -1102.355750903        85.730037488
        34           17.000000         0.291210761       319.295053980     -1102.647476574     -1102.355705892        83.788034156
        35           17.500000         0.303751951       333.045713179     -1102.652982102     -1102.355823547        82.838036302
        36           18.000000         0.299220135       328.076849934     -1102.659956618     -1102.356048442        82.606071085
        37           18.500000         0.316528355       347.054270077     -1102.662878593     -1102.356180240        83.230016608
        38           19.000000         0.312059887       342.154864507     -1102.660507582     -1102.356202008        85.307038352
        39           19.500000         0.316171730       346.663252967     -1102.656115673     -1102.356078685        86.051016364
        40           20.000000         0.299355453       328.225217601     -1102.648878514     -1102.355890093       606.729295243
        41           20.500000         0.290515955       318.533241422     -1102.643145712     -1102.355773629        84.485004522
        42           21.000000         0.292335239       320.527976607     -1102.641775355     -1102.355839829        81.378078666
        43           21.500000         0.292864229       321.107981598     -1102.641696945     -1102.355896983        83.730979878
        44           22.000000         0.298441806       327.223458585     -1102.641498294     -1102.355927731        83.605033066
        45           22.500000         0.281584966       308.740950017     -1102.641249503     -1102.355973007        83.643051539
        46           23.000000         0.268647469       294.555763713     -1102.638733432     -1102.355935123        83.293022778
        47           23.500000         0.272321768       298.584410955     -1102.640558486     -1102.355980954        82.739062291
        48           24.000000         0.280027628       307.033422556     -1102.643886369     -1102.356039317        83.795019731
        49           24.500000         0.277870189       304.667920803     -1102.647866085     -1102.356127491        83.812008705
        50           25.000000         0.275189966       301.729217684     -1102.650936078     -1102.356256634       730.904350795
        51           25.500000         0.260569407       285.698655714     -1102.652308206     -1102.356346909        79.041975100
        52           26.000000         0.260067903       285.148786102     -1102.653011744     -1102.356342919        79.078069206
        53           26.500000         0.259523824       284.552236394     -1102.650868573     -1102.356222289        82.062001940
        54           27.000000         0.258216561       283.118901724     -1102.649712215     -1102.356088336        79.172044903
        55           27.500000         0.252322957       276.656919568     -1102.649573181     -1102.356007795        79.974032190
        56           28.000000         0.250219224       274.350303125     -1102.654470790     -1102.356129352        77.847067174
        57           28.500000         0.266792766       292.522193684     -1102.663219866     -1102.356395973        79.390985128
        58           29.000000         0.270022295       296.063177828     -1102.667565255     -1102.356510507        80.726052366
        59           29.500000         0.272968396       299.293400089     -1102.671480487     -1102.356565130        80.491010100
        60           30.000000         0.276980269       303.692176295     -1102.671991386     -1102.356537916       625.831273641
        61           30.500000         0.274619786       301.104049797     -1102.671363550     -1102.356500826        79.207993720
        62           31.000000         0.274218381       300.663932521     -1102.668392698     -1102.356435724        79.298011284
        63           31.500000         0.278232801       305.065502826     -1102.666314114     -1102.356430160        79.962070014
        64           32.000000         0.291317859       319.412480537     -1102.662998567     -1102.356351195        77.924009044
        65           32.500000         0.287118339       314.807959572     -1102.660598886     -1102.356288021        79.821033046
        66           33.000000         0.277406894       304.159944898     -1102.656416776     -1102.356161111        78.600009046
        67           33.500000         0.269359451       295.336408691     -1102.654625485     -1102.356095346        79.726061001
        68           34.000000         0.284279324       311.695150794     -1102.655748156     -1102.356119225        81.181046650
        69           34.500000         0.307167002       336.790110299     -1102.663050205     -1102.356274076        79.379013147
        70           35.000000         0.309877738       339.762269572     -1102.668570830     -1102.356387568       725.938345052
        71           35.500000         0.306403989       335.953513258     -1102.670562621     -1102.356379401        80.632977009
        72           36.000000         0.294675470       323.093898242     -1102.671396058     -1102.356341667        80.552057885
        73           36.500000         0.304358645       333.710916780     -1102.670834857     -1102.356309045        79.306058489
        74           37.000000         0.291807604       319.949456255     -1102.670878157     -1102.356269137        79.509000566
        75           37.500000         0.308475946       338.225288705     -1102.673067446     -1102.356292656        78.455037951
        76           38.000000         0.283414248       310.746646682     -1102.675533624     -1102.356355391        77.641028397
        77           38.500000         0.281646563       308.808486783     -1102.678692285     -1102.356429445        79.481033783
        78           39.000000         0.287676450       315.419895249     -1102.682841958     -1102.356525077        80.520072095
        79           39.500000         0.296160721       324.722386508     -1102.682175598     -1102.356498364        79.131991558
        80           40.000000         0.285683813       313.235088653     -1102.677974318     -1102.356356637       542.963255145
        81           40.500000         0.307988658       337.691007621     -1102.673529462     -1102.356219005        79.532025963
        82           41.000000         0.283636192       310.989995645     -1102.670246716     -1102.356145174        79.856018227
        83           41.500000         0.292098231       320.268111452     -1102.671499341     -1102.356216322        81.803035330
        84           42.000000         0.319349960       350.147990617     -1102.673448769     -1102.356302368        79.196040183
        85           42.500000         0.324155512       355.416988732     -1102.673504057     -1102.356347537        79.365070537
        86           43.000000         0.300808653       329.818564681     -1102.671330785     -1102.356328113        80.530977756
        87           43.500000         0.297078691       325.728885646     -1102.670057303     -1102.356340372        78.722050142
        88           44.000000         0.300955400       329.979463577     -1102.669580757     -1102.356351231        78.477028038
        89           44.500000         0.292778428       321.013906599     -1102.667336026     -1102.356316568        80.274041958
        90           45.000000         0.274898758       301.409925937     -1102.662884544     -1102.356238183       550.716276165
        91           45.500000         0.273692113       300.086912077     -1102.659033483     -1102.356178724        78.467995740
        92           46.000000         0.263519393       288.933136857     -1102.657525460     -1102.356128008        79.509030964
        93           46.500000         0.271944812       298.171101600     -1102.657041021     -1102.356118620        81.850073963
        94           47.000000         0.261193256       286.382668676     -1102.659305313     -1102.356168408        79.342985660
        95           47.500000         0.268739647       294.656831480     -1102.662257239     -1102.356248589        83.303041026
        96           48.000000         0.277668876       304.447192794     -1102.659258383     -1102.356183994        78.966038425
        97           48.500000         0.283957697       311.342506709     -1102.654190135     -1102.356020721        80.196020510
        98           49.000000         0.275837644       302.439357540     -1102.649218764     -1102.355862121        78.976081200
        99           49.500000         0.271452640       297.631464532     -1102.647594551     -1102.355828560        80.048981845
       100           50.000000         0.259610339       284.647095631     -1102.650520153     -1102.355935729       555.229294553
       101           50.500000         0.269993665       296.031786957     -1102.655543128     -1102.356078933        80.345033567
       102           51.000000         0.273117442       299.456819301     -1102.661215689     -1102.356201154        80.795979731
       103           51.500000         0.272037750       298.273002340     -1102.662388408     -1102.356193925        79.196054939
       104           52.000000         0.271881612       298.101806460     -1102.660090195     -1102.356086814        78.872034803
       105           52.500000         0.261329875       286.532462964     -1102.656857315     -1102.355953450        81.348048732
       106           53.000000         0.257851077       282.718170422     -1102.658945705     -1102.356019583        80.832014952
       107           53.500000         0.267209384       292.978989626     -1102.663842534     -1102.356194618        79.714036644
       108           54.000000         0.273131830       299.472595150     -1102.669023867     -1102.356369503        78.652026106
       109           54.500000         0.279496678       306.451267896     -1102.674150739     -1102.356461531        82.647045523
       110           55.000000         0.269132455       295.087521462     -1102.673751209     -1102.356425879       499.704241239
       111           55.500000         0.265321275       290.908791904     -1102.669773159     -1102.356314786        79.471011225
       112           56.000000         0.277186419       303.918208076     -1102.664105670     -1102.356152559        79.856036678
       113           56.500000         0.266558642       292.265491164     -1102.660314495     -1102.356062526        80.834016029
       114           57.000000         0.280536149       307.590985113     -1102.656732764     -1102.356020482        79.788090404
       115           57.500000         0.282306491       309.532058375     -1102.656574487     -1102.356046989        79.182994325
       116           58.000000         0.276445203       303.105509345     -1102.655533039     -1102.356057184        87.845020719
       117           58.500000         0.269101032       295.053067725     -1102.657561844     -1102.356124044        79.521057054
       118           59.000000         0.278950016       305.851885600     -1102.659062945     -1102.356186541        82.293061219
       119           59.500000         0.294719772       323.142473298     -1102.658528241     -1102.356217954        81.493009031
       120           60.000000         0.290998392       319.062204390     -1102.655979178     -1102.356187313       512.869253229
       121           60.500000         0.289410294       317.320949829     -1102.654228474     -1102.356152654        81.617998518
       122           61.000000         0.293512506       321.818778241     -1102.654109831     -1102.356151272        79.689069640
       123           61.500000         0.289798790       317.746912284     -1102.653635858     -1102.356160746        80.310981780
       124           62.000000         0.290653255       318.683782530     -1102.653659111     -1102.356198626        80.079049222
       125           62.500000         0.293504719       321.810240662     -1102.655324883     -1102.356286393        80.881034084
       126           63.000000         0.289107767       316.989247314     -1102.655456745     -1102.356322046        80.534057520
       127           63.500000         0.294780902       323.209498695     -1102.654167649     -1102.356305419        79.466994327
       128           64.000000         0.277753610       304.540099089     -1102.648018535     -1102.356152763        80.337043758
       129           64.500000         0.272443653       298.718050182     -1102.641070811     -1102.355999393        84.162046880
       130           65.000000         0.271228323       297.385514249     -1102.637696521     -1102.355926513       534.165262908
       131           65.500000         0.275557079       302.131734360     -1102.638538183     -1102.355950547        80.181994434
       132           66.000000         0.285389151       312.912008988     -1102.644284875     -1102.356092329        80.030033555
       133           66.500000         0.292997469       321.254071339     -1102.648624646     -1102.356233841        79.944072172
       134           67.000000         0.294247756       322.624936363     -1102.650661681     -1102.356313493        79.665998790
       135           67.500000         0.300078568       329.018069689     -1102.651084352     -1102.356309325        80.203030139
       136           68.000000         0.302756321       331.954064659     -1102.649784365     -1102.356222999        78.842074737
       137           68.500000         0.297596561       326.296698897     -1102.647359811     -1102.356156656        80.207977690
       138           69.000000         0.273927561       300.345066394     -1102.645769829     -1102.356207648        78.896050636
       139           69.500000         0.267163874       292.929091310     -1102.643835930     -1102.356259859        79.976070788
       140           70.000000         0.278498842       305.357200792     -1102.644009474     -1102.356288923       511.610212177
       141           70.500000         0.264609756       290.128654227     -1102.640916239     -1102.356210461        79.091982830
       142           71.000000         0.275848792       302.451580456     -1102.635774083     -1102.356094080        81.698034856
       143           71.500000         0.257052117       281.842158324     -1102.632946463     -1102.356075802        80.664081402
       144           72.000000         0.282505137       309.749861274     -1102.631876147     -1102.356088042        82.851002622
       145           72.500000         0.285412026       312.937090135     -1102.632540281     -1102.356152565        80.221016217
       146           73.000000         0.278504406       305.363300670     -1102.634513394     -1102.356274715        79.181088019
       147           73.500000         0.279110664       306.028026236     -1102.636342969     -1102.356431654        80.649997331
       148           74.000000         0.292500076       320.708709662     -1102.634719075     -1102.356475181        82.163015485
       149           74.500000         0.296903692       325.537010211     -1102.627935583     -1102.356328849        86.315074470
       150           75.000000         0.294694717       323.115002181     -1102.618372039     -1102.356041840       495.795207217
       151           75.500000         0.285454708       312.983888442     -1102.610707746     -1102.355830728        95.596018787
       152           76.000000         0.274948938       301.464944640     -1102.605851609     -1102.355771048        86.561056752
       153           76.500000         0.269066412       295.015108935     -1102.603421611     -1102.355775819        86.718000036
       154           77.000000         0.252638696       277.003108757     -1102.602446022     -1102.355782216        88.321032871
       155           77.500000         0.252647810       277.013101395     -1102.604834151     -1102.355809262        84.928088047
       156           78.000000         0.248309625       272.256543615     -1102.609458628     -1102.355888298        86.288983472
